# Res.index <(v_i(0)*v_j(t))/sqrt{v_i^2(0) vj^2(t)}>_t
1 0.807472 0.804107 0.801033 0.797928 0.794585 0.79547 0.799403 0.80232 0.809277 0.816539 
2 0.822017 0.819324 0.816359 0.813555 0.810933 0.812865 0.816438 0.819617 0.825301 0.830777 
3 0.835845 0.833985 0.831675 0.829588 0.828 0.830328 0.833326 0.836901 0.841188 0.845004 
4 0.850278 0.848938 0.84693 0.845101 0.844236 0.846438 0.848396 0.851137 0.853963 0.856285 
5 0.867992 0.866869 0.864873 0.863304 0.862503 0.864166 0.86568 0.867758 0.869567 0.871159 
6 0.893696 0.892446 0.890314 0.888871 0.888058 0.889185 0.890175 0.891473 0.892526 0.893622 
7 0.909442 0.907977 0.905701 0.904066 0.902997 0.903246 0.903085 0.903343 0.903213 0.903107 
8 0.917273 0.915788 0.913532 0.912127 0.91095 0.910687 0.910015 0.909698 0.90886 0.907989 
9 0.931971 0.930345 0.927835 0.926238 0.924732 0.923789 0.922234 0.92099 0.919193 0.917468 
10 0.932271 0.930628 0.928127 0.926609 0.924956 0.923545 0.921522 0.919792 0.917419 0.915054 
11 0.917447 0.915883 0.913593 0.912331 0.910755 0.909435 0.907666 0.90611 0.90393 0.901541 
12 0.9091 0.907406 0.904971 0.903481 0.901669 0.900297 0.898469 0.896882 0.894624 0.892115 
13 0.897011 0.895408 0.893115 0.89169 0.890037 0.889214 0.888037 0.887073 0.885506 0.883514 
14 0.882432 0.880957 0.878872 0.877554 0.876296 0.876237 0.876106 0.876266 0.875916 0.875106 
15 0.888303 0.886995 0.88501 0.883902 0.883083 0.88366 0.884263 0.885162 0.885718 0.886034 
16 0.872469 0.871249 0.86954 0.868794 0.868382 0.869655 0.871052 0.872755 0.87402 0.875201 
17 0.851961 0.850672 0.849281 0.848689 0.848776 0.850875 0.853495 0.856254 0.858873 0.861358 
18 0.849755 0.848511 0.847286 0.846871 0.847355 0.849475 0.852427 0.855586 0.858625 0.861335 
19 0.871641 0.870395 0.869026 0.86861 0.868967 0.870663 0.872901 0.875308 0.877477 0.87942 
20 0.898733 0.897508 0.895921 0.895269 0.895477 0.896984 0.898605 0.900445 0.901918 0.903268 
21 0.916607 0.915221 0.913349 0.912338 0.912227 0.913597 0.914663 0.916218 0.917464 0.918468 
22 0.936171 0.934677 0.93261 0.931349 0.930833 0.931648 0.932003 0.93273 0.933419 0.933889 
23 0.947863 0.946352 0.944208 0.942724 0.942042 0.942712 0.942679 0.942983 0.94342 0.943821 
24 0.957385 0.955729 0.953297 0.951472 0.950434 0.950516 0.949837 0.949493 0.949352 0.949259 
25 0.961664 0.959846 0.957117 0.954895 0.953511 0.953147 0.952017 0.951187 0.950742 0.950603 
26 0.953029 0.951267 0.948417 0.946051 0.944562 0.944298 0.943235 0.942539 0.942126 0.942098 
27 0.949818 0.948098 0.94528 0.943114 0.941631 0.941303 0.9401 0.939239 0.938478 0.93795 
28 0.942903 0.941302 0.938737 0.936972 0.935754 0.935561 0.934647 0.934067 0.933278 0.932704 
29 0.940081 0.93855 0.936269 0.934811 0.93384 0.933818 0.933153 0.932846 0.932221 0.931699 
30 0.929129 0.927716 0.925686 0.924606 0.923853 0.92397 0.92355 0.923426 0.922905 0.922332 
31 0.92913 0.927852 0.926004 0.925125 0.924734 0.925188 0.925247 0.925543 0.925424 0.925277 
32 0.929012 0.927851 0.926066 0.925421 0.924958 0.924986 0.924662 0.924373 0.923639 0.922928 
33 0.934096 0.932831 0.930927 0.930143 0.929351 0.928833 0.927848 0.926935 0.925549 0.924213 
34 0.947364 0.945972 0.94387 0.942799 0.941873 0.941282 0.94007 0.938996 0.937523 0.936085 
35 0.957238 0.95585 0.953678 0.952502 0.951424 0.95046 0.948757 0.947063 0.945041 0.943039 
36 0.963974 0.962669 0.960489 0.959238 0.957954 0.956557 0.95432 0.952031 0.949561 0.947128 
37 0.965611 0.96416 0.961738 0.960333 0.958719 0.956725 0.953895 0.951032 0.94791 0.944722 
38 0.962538 0.961115 0.958678 0.9573 0.95554 0.953177 0.949881 0.946547 0.94292 0.939197 
39 0.959409 0.958194 0.95604 0.95485 0.953294 0.951067 0.947822 0.944577 0.941006 0.937444 
40 0.953957 0.952834 0.950826 0.949745 0.948345 0.946374 0.943416 0.940361 0.936939 0.933593 
41 0.954678 0.953629 0.951787 0.950723 0.949505 0.948037 0.945601 0.943047 0.940163 0.937441 
42 0.953142 0.952037 0.95023 0.949091 0.948062 0.947252 0.945517 0.943664 0.941522 0.939662 
43 0.960453 0.959122 0.957171 0.955884 0.954903 0.954612 0.95344 0.952265 0.951026 0.949914 
44 0.958663 0.957371 0.955527 0.954259 0.953422 0.953763 0.953256 0.952625 0.952077 0.951548 
45 0.959356 0.958083 0.956324 0.955088 0.954401 0.955016 0.954686 0.95451 0.954463 0.954305 
46 0.967393 0.966086 0.964277 0.963033 0.962199 0.962446 0.961687 0.961202 0.961004 0.960698 
47 0.976352 0.974834 0.972819 0.971359 0.970408 0.97031 0.96932 0.96862 0.96843 0.968176 
48 0.980776 0.979112 0.976887 0.975263 0.974069 0.97356 0.972212 0.97112 0.970541 0.969948 
49 0.983388 0.981586 0.979119 0.977311 0.975791 0.974762 0.972916 0.971328 0.970173 0.968967 
50 0.982455 0.980503 0.977672 0.975652 0.973862 0.97256 0.9705 0.968795 0.967298 0.965845 
51 0.97884 0.976699 0.973437 0.971131 0.968875 0.966863 0.964313 0.962182 0.960054 0.957902 
52 0.972239 0.969877 0.966186 0.96359 0.960889 0.958264 0.955227 0.952593 0.949896 0.946973 
53 0.968024 0.965665 0.961986 0.959447 0.956935 0.954492 0.951618 0.949114 0.946383 0.943379 
54 0.969496 0.967411 0.964078 0.961915 0.959761 0.957551 0.954787 0.95227 0.949464 0.946462 
55 0.972902 0.971132 0.968282 0.966499 0.964767 0.963001 0.960547 0.95819 0.955719 0.953062 
56 0.977526 0.975876 0.973292 0.971589 0.969947 0.968306 0.965893 0.963606 0.961399 0.959046 
57 0.977542 0.97607 0.973763 0.972198 0.970702 0.969269 0.966949 0.964731 0.962673 0.960608 
58 0.980716 0.979319 0.977169 0.975654 0.974342 0.973231 0.971199 0.969389 0.967993 0.966624 
59 0.978634 0.977441 0.975416 0.97399 0.97264 0.971309 0.968961 0.966855 0.965111 0.96347 
60 0.97667 0.975411 0.973283 0.97182 0.97029 0.968464 0.965626 0.962985 0.960556 0.958157 
61 0.981062 0.97967 0.977368 0.975725 0.97402 0.97209 0.969178 0.96653 0.964146 0.961759 
62 0.985376 0.983958 0.981754 0.980075 0.978314 0.976391 0.973588 0.971028 0.968765 0.966483 
63 0.989982 0.988701 0.986734 0.985164 0.983649 0.981926 0.979437 0.977132 0.975074 0.973035 
64 0.991986 0.99061 0.988713 0.987224 0.985812 0.984082 0.981616 0.979199 0.976917 0.97474 
65 0.994104 0.992697 0.990912 0.989509 0.988258 0.98662 0.98435 0.982016 0.979856 0.97787 
66 0.996307 0.994989 0.993438 0.992229 0.991186 0.989671 0.987655 0.985512 0.983675 0.982002 
67 0.998337 0.997185 0.99585 0.994783 0.993858 0.992571 0.990807 0.988981 0.987471 0.986032 
68 0.999684 0.998541 0.997325 0.996176 0.995201 0.993893 0.992233 0.99054 0.989157 0.987916 
69 1 0.998942 0.997971 0.996901 0.996025 0.994797 0.993291 0.991749 0.990557 0.989536 
70 0.99919 0.99819 0.997291 0.996178 0.995284 0.994106 0.992715 0.991324 0.990189 0.989175 
71 0.998674 0.99771 0.996924 0.995834 0.994995 0.993823 0.992494 0.991186 0.990118 0.989235 
72 0.99902 0.998035 0.997239 0.996169 0.995408 0.994186 0.992853 0.991498 0.990442 0.989672 
73 0.999022 0.997893 0.996905 0.995687 0.994759 0.99342 0.991948 0.990413 0.989235 0.988336 
74 0.998871 0.997707 0.996686 0.995518 0.994648 0.993312 0.991759 0.990146 0.988925 0.98801 
75 0.998182 0.997009 0.995888 0.994811 0.993946 0.992571 0.990902 0.989163 0.987839 0.986787 
76 0.998236 0.997205 0.996192 0.995325 0.994588 0.993374 0.99179 0.990156 0.988912 0.987807 
77 0.995531 0.994693 0.993874 0.993319 0.992829 0.991801 0.99028 0.988788 0.98766 0.986695 
78 0.990842 0.99012 0.989401 0.989159 0.988949 0.988064 0.986546 0.985186 0.984231 0.983373 
79 0.987853 0.987258 0.986689 0.986608 0.986672 0.985958 0.98463 0.98347 0.982717 0.982088 
80 0.991011 0.9904 0.989843 0.98964 0.989645 0.988856 0.987513 0.986321 0.985561 0.984924 
81 0.992746 0.992233 0.991874 0.991661 0.991778 0.991106 0.989933 0.988912 0.988297 0.987774 
82 0.993716 0.99325 0.992907 0.992656 0.992674 0.992061 0.990992 0.990061 0.989458 0.98891 
83 0.994461 0.993961 0.993591 0.993179 0.993011 0.992315 0.991299 0.990404 0.989741 0.989095 
84 0.992719 0.992195 0.991737 0.99124 0.990915 0.990188 0.989118 0.988215 0.987493 0.986706 
85 0.99127 0.990694 0.990122 0.989389 0.98885 0.98802 0.986895 0.985902 0.985058 0.984087 
86 0.987447 0.986836 0.986149 0.985224 0.984484 0.98356 0.982384 0.981364 0.98046 0.979302 
87 0.989965 0.989209 0.988282 0.987225 0.986393 0.985433 0.984115 0.982956 0.981955 0.980637 
88 0.993855 0.993026 0.992084 0.991009 0.990105 0.989045 0.987656 0.986389 0.98526 0.98398 
89 0.997115 0.996297 0.995437 0.994496 0.993721 0.992714 0.991371 0.990103 0.989031 0.987933 
90 0.997818 0.997089 0.996415 0.99565 0.995098 0.994178 0.99295 0.991779 0.990834 0.989958 
91 0.998305 0.997624 0.997069 0.996457 0.996101 0.995248 0.994091 0.992981 0.992167 0.991533 
92 0.996111 0.995605 0.995329 0.994976 0.994952 0.994322 0.993374 0.992516 0.991914 0.991473 
93 0.996158 0.99566 0.995453 0.995097 0.995096 0.994442 0.993534 0.992727 0.99217 0.991824 
94 0.99745 0.996834 0.996487 0.995904 0.995654 0.994847 0.993823 0.992836 0.992151 0.991685 
95 0.996451 0.995849 0.995465 0.99481 0.994474 0.993658 0.992636 0.991661 0.990936 0.990358 
96 0.994301 0.99371 0.993346 0.992596 0.992136 0.991253 0.990235 0.989245 0.988462 0.987839 
97 0.990714 0.990169 0.989876 0.989063 0.988526 0.987612 0.986617 0.985628 0.984833 0.984259 
98 0.987378 0.986763 0.98635 0.985348 0.984576 0.983526 0.982398 0.981253 0.980343 0.97965 
99 0.984559 0.983954 0.983593 0.98251 0.981677 0.980589 0.979456 0.97828 0.977317 0.976655 
100 0.985094 0.98454 0.984299 0.983276 0.982563 0.981525 0.98045 0.979353 0.978448 0.977949 
101 0.988957 0.988393 0.988129 0.987142 0.986502 0.985507 0.984437 0.983347 0.982467 0.981988 
102 0.990813 0.990305 0.99012 0.989316 0.988867 0.987972 0.987026 0.986073 0.98528 0.984849 
103 0.992631 0.992179 0.992053 0.991437 0.991216 0.99045 0.989614 0.98881 0.988148 0.987781 
104 0.991573 0.991144 0.991014 0.990508 0.990345 0.989674 0.988861 0.98809 0.987467 0.987038 
105 0.991861 0.991452 0.991324 0.990957 0.990914 0.990322 0.989533 0.988825 0.988285 0.987854 
106 0.989445 0.989135 0.989101 0.989003 0.989173 0.988742 0.988088 0.98754 0.98712 0.986763 
107 0.986069 0.985769 0.985809 0.985712 0.985914 0.98548 0.984864 0.984363 0.984006 0.983687 
108 0.981531 0.981236 0.981274 0.981127 0.9812 0.98073 0.980117 0.979591 0.979222 0.978867 
109 0.980974 0.980564 0.980468 0.980131 0.979935 0.979294 0.978522 0.977849 0.977379 0.976829 
110 0.978428 0.977934 0.977722 0.977166 0.97672 0.975915 0.974979 0.974108 0.973471 0.9728 
111 0.975706 0.975138 0.974792 0.974083 0.97342 0.972497 0.971452 0.970437 0.969721 0.968873 
112 0.97304 0.972384 0.971869 0.970945 0.969992 0.968903 0.96773 0.966538 0.965689 0.964698 
113 0.968364 0.967567 0.966889 0.965728 0.964486 0.963213 0.961866 0.960534 0.959561 0.958368 
114 0.973679 0.972716 0.971795 0.970451 0.969026 0.967695 0.966258 0.964738 0.963537 0.962184 
115 0.978781 0.977902 0.977124 0.975837 0.974576 0.973347 0.972009 0.970582 0.969458 0.968285 
116 0.982754 0.982038 0.981442 0.980379 0.97942 0.97837 0.977204 0.975984 0.975028 0.974088 
117 0.981859 0.981269 0.9809 0.980056 0.979371 0.97843 0.977375 0.976314 0.975508 0.974758 
118 0.982702 0.982228 0.982056 0.981376 0.980894 0.980046 0.979112 0.978198 0.977483 0.976943 
119 0.978894 0.978526 0.978553 0.978097 0.977838 0.977096 0.976297 0.975556 0.975 0.974595 
120 0.97702 0.976666 0.976761 0.976243 0.975942 0.975129 0.974328 0.973567 0.972968 0.972581 
121 0.976754 0.976325 0.976315 0.975614 0.975101 0.974157 0.973238 0.972321 0.971598 0.971104 
122 0.973101 0.972634 0.972607 0.971889 0.971273 0.970286 0.969318 0.968354 0.96762 0.967028 
123 0.967898 0.967505 0.967572 0.96693 0.966367 0.965383 0.964453 0.963562 0.962877 0.962319 
124 0.966239 0.965805 0.965849 0.9651 0.964415 0.963363 0.962359 0.96138 0.960635 0.96003 
125 0.964259 0.963745 0.963679 0.962765 0.961896 0.960708 0.959567 0.958443 0.95762 0.956868 
126 0.960987 0.960455 0.960346 0.959421 0.958509 0.957293 0.956131 0.954945 0.954127 0.95332 
127 0.957453 0.957037 0.957019 0.956252 0.955475 0.954305 0.95321 0.952092 0.951291 0.950528 
128 0.950744 0.950408 0.950574 0.950003 0.949275 0.948033 0.946837 0.945729 0.944797 0.943887 
129 0.950123 0.949859 0.95015 0.949654 0.949115 0.948093 0.947159 0.946216 0.945555 0.944725 
130 0.952193 0.952032 0.952453 0.952165 0.951958 0.951286 0.950675 0.950087 0.949781 0.949229 
131 0.954264 0.954149 0.954602 0.95437 0.954259 0.953538 0.952828 0.952387 0.952227 0.951692 
132 0.955132 0.955142 0.955541 0.955367 0.955189 0.954564 0.95373 0.953274 0.953169 0.952709 
133 0.953967 0.954096 0.954495 0.954568 0.95442 0.953898 0.953171 0.952813 0.95305 0.952888 
134 0.917879 0.916479 0.914448 0.91358 0.912513 0.911817 0.910774 0.909979 0.908554 0.907097 
135 0.969764 0.968526 0.96643 0.965051 0.963576 0.961814 0.959037 0.956319 0.953585 0.950868 
136 0.999341 0.998512 0.997859 0.997046 0.996506 0.995486 0.994216 0.992977 0.992053 0.99141 
137 0.983778 0.983307 0.983187 0.982398 0.981876 0.980961 0.980022 0.979086 0.978335 0.977877 
138 0.904817 0.903446 0.901057 0.89633 0.891699 0.889131 0.886232 0.885515 0.884012 0.883707 
